wavelength[nm],power[dBm]
1562.000,-65.195
1562.010,-65.191
1562.020,-64.959
1562.030,-64.880
1562.040,-64.641
1562.050,-64.350
1562.060,-64.264
1562.070,-63.940
1562.080,-63.897
1562.090,-63.644
1562.100,-63.374
1562.110,-63.350
1562.120,-63.082
1562.130,-62.994
1562.140,-63.001
1562.150,-63.041
1562.160,-62.916
1562.170,-62.977
1562.180,-63.178
1562.190,-63.307
1562.200,-63.575
1562.210,-63.714
1562.220,-63.937
1562.230,-64.288
1562.240,-64.401
1562.250,-64.595
1562.260,-64.898
1562.270,-64.909
1562.280,-64.845
1562.290,-65.033
1562.300,-65.218
1562.310,-65.443
1562.320,-65.407
1562.330,-65.347
1562.340,-65.411
1562.350,-65.349
1562.360,-65.138
1562.370,-65.266
1562.380,-65.066
1562.390,-65.024
1562.400,-64.911
1562.410,-64.723
1562.420,-64.482
1562.430,-64.257
1562.440,-64.104
1562.450,-63.825
1562.460,-63.796
1562.470,-63.581
1562.480,-63.385
1562.490,-63.198
1562.500,-63.096
1562.510,-63.191
1562.520,-63.118
1562.530,-63.168
1562.540,-63.304
1562.550,-63.187
1562.560,-63.560
1562.570,-63.642
1562.580,-63.836
1562.590,-64.071
1562.600,-64.197
1562.610,-64.427
1562.620,-64.509
1562.630,-64.789
1562.640,-64.965
1562.650,-65.048
1562.660,-64.998
1562.670,-65.138
1562.680,-65.291
1562.690,-65.327
1562.700,-65.426
1562.710,-65.276
1562.720,-65.362
1562.730,-65.156
1562.740,-65.290
1562.750,-65.003
1562.760,-64.833
1562.770,-64.679
1562.780,-64.475
1562.790,-64.310
1562.800,-64.238
1562.810,-63.993
1562.820,-63.741
1562.830,-63.573
1562.840,-63.521
1562.850,-63.369
1562.860,-63.261
1562.870,-63.352
1562.880,-63.239
1562.890,-63.264
1562.900,-63.293
1562.910,-63.431
1562.920,-63.562
1562.930,-63.703
1562.940,-63.821
1562.950,-64.116
1562.960,-64.217
1562.970,-64.427
1562.980,-64.539
1562.990,-64.732
1563.000,-64.806
1563.010,-65.068
1563.020,-65.093
1563.030,-65.165
1563.040,-65.093
1563.050,-65.151
1563.060,-65.242
1563.070,-65.073
1563.080,-65.249
1563.090,-65.178
1563.100,-64.978
1563.110,-65.024
1563.120,-64.596
1563.130,-64.528
1563.140,-64.520
1563.150,-64.276
1563.160,-64.212
1563.170,-64.052
1563.180,-63.909
1563.190,-63.648
1563.200,-63.610
1563.210,-63.411
1563.220,-63.320
1563.230,-63.263
1563.240,-63.306
1563.250,-63.321
1563.260,-63.281
1563.270,-63.282
1563.280,-63.488
1563.290,-63.696
1563.300,-63.739
1563.310,-64.016
1563.320,-64.104
1563.330,-64.334
1563.340,-64.360
1563.350,-64.500
1563.360,-64.743
1563.370,-64.754
1563.380,-64.899
1563.390,-64.944
1563.400,-64.927
1563.410,-65.166
1563.420,-65.234
1563.430,-65.139
1563.440,-64.968
1563.450,-65.135
1563.460,-64.926
1563.470,-64.907
1563.480,-64.773
1563.490,-64.674
1563.500,-64.655
1563.510,-64.344
1563.520,-64.308
1563.530,-64.149
1563.540,-64.001
1563.550,-63.729
1563.560,-63.737
1563.570,-63.474
1563.580,-63.501
1563.590,-63.303
1563.600,-63.402
1563.610,-63.380
1563.620,-63.200
1563.630,-63.416
1563.640,-63.454
1563.650,-63.530
1563.660,-63.568
1563.670,-63.709
1563.680,-63.852
1563.690,-64.027
1563.700,-64.071
1563.710,-64.234
1563.720,-64.350
1563.730,-64.698
1563.740,-64.682
1563.750,-64.748
1563.760,-64.896
1563.770,-64.899
1563.780,-64.988
1563.790,-64.960
1563.800,-64.808
1563.810,-64.920
1563.820,-64.931
1563.830,-64.877
1563.840,-64.855
1563.850,-64.838
1563.860,-64.730
1563.870,-64.577
1563.880,-64.333
1563.890,-64.327
1563.900,-64.094
1563.910,-64.078
1563.920,-63.833
1563.930,-63.730
1563.940,-63.560
1563.950,-63.418
1563.960,-63.363
1563.970,-63.296
1563.980,-63.298
1563.990,-63.296
1564.000,-63.377
1564.010,-63.460
1564.020,-63.386
1564.030,-63.619
1564.040,-63.625
1564.050,-63.782
1564.060,-63.899
1564.070,-64.076
1564.080,-64.132
1564.090,-64.278
1564.100,-64.523
1564.110,-64.372
1564.120,-64.663
1564.130,-64.761
1564.140,-64.718
1564.150,-64.824
1564.160,-64.928
1564.170,-64.779
1564.180,-64.853
1564.190,-64.893
1564.200,-64.911
1564.210,-64.906
1564.220,-64.681
1564.230,-64.567
1564.240,-64.565
1564.250,-64.514
1564.260,-64.557
1564.270,-64.324
1564.280,-64.177
1564.290,-64.072
1564.300,-63.908
1564.310,-63.856
1564.320,-63.594
1564.330,-63.561
1564.340,-63.533
1564.350,-63.439
1564.360,-63.453
1564.370,-63.404
1564.380,-63.493
1564.390,-63.445
1564.400,-63.556
1564.410,-63.631
1564.420,-63.784
1564.430,-63.879
1564.440,-63.924
1564.450,-64.162
1564.460,-64.155
1564.470,-64.398
1564.480,-64.515
1564.490,-64.430
1564.500,-64.643
1564.510,-64.800
1564.520,-64.927
1564.530,-64.815
1564.540,-65.006
1564.550,-65.007
1564.560,-64.978
1564.570,-64.931
1564.580,-64.871
1564.590,-64.885
1564.600,-64.691
1564.610,-64.678
1564.620,-64.616
1564.630,-64.531
1564.640,-64.486
1564.650,-64.424
1564.660,-64.112
1564.670,-64.132
1564.680,-64.002
1564.690,-63.884
1564.700,-63.785
1564.710,-63.696
1564.720,-63.673
1564.730,-63.627
1564.740,-63.550
1564.750,-63.626
1564.760,-63.612
1564.770,-63.581
1564.780,-63.687
1564.790,-63.859
1564.800,-63.828
1564.810,-63.953
1564.820,-64.059
1564.830,-64.233
1564.840,-64.276
1564.850,-64.526
1564.860,-64.552
1564.870,-64.622
1564.880,-64.686
1564.890,-64.914
1564.900,-64.850
1564.910,-65.112
1564.920,-65.120
1564.930,-65.036
1564.940,-64.950
1564.950,-64.894
1564.960,-65.089
1564.970,-64.800
1564.980,-64.830
1564.990,-64.741
1565.000,-64.721
1565.010,-64.597
1565.020,-64.473
1565.030,-64.342
1565.040,-64.255
1565.050,-63.994
1565.060,-63.885
1565.070,-63.934
1565.080,-63.809
1565.090,-63.647
1565.100,-63.643
1565.110,-63.612
1565.120,-63.580
1565.130,-63.604
1565.140,-63.648
1565.150,-63.713
1565.160,-63.876
1565.170,-63.966
1565.180,-64.018
1565.190,-64.091
1565.200,-64.267
1565.210,-64.484
1565.220,-64.372
1565.230,-64.647
1565.240,-64.952
1565.250,-64.894
1565.260,-65.046
1565.270,-65.024
1565.280,-65.097
1565.290,-65.019
1565.300,-65.310
1565.310,-65.125
1565.320,-65.038
1565.330,-64.915
1565.340,-64.980
1565.350,-64.838
1565.360,-64.704
1565.370,-64.706
1565.380,-64.478
1565.390,-64.277
1565.400,-64.277
1565.410,-64.120
1565.420,-63.814
1565.430,-63.863
1565.440,-63.640
1565.450,-63.631
1565.460,-63.606
1565.470,-63.501
1565.480,-63.414
1565.490,-63.448
1565.500,-63.502
1565.510,-63.494
1565.520,-63.620
1565.530,-63.747
1565.540,-63.954
1565.550,-64.091
1565.560,-64.245
1565.570,-64.422
1565.580,-64.579
1565.590,-64.710
1565.600,-64.911
1565.610,-65.102
1565.620,-65.129
1565.630,-65.228
1565.640,-65.209
1565.650,-65.285
1565.660,-65.468
1565.670,-65.160
1565.680,-65.206
1565.690,-65.158
1565.700,-65.198
1565.710,-65.090
1565.720,-65.012
1565.730,-64.729
1565.740,-64.766
1565.750,-64.563
1565.760,-64.323
1565.770,-64.120
1565.780,-64.150
1565.790,-63.806
1565.800,-63.680
1565.810,-63.633
1565.820,-63.494
1565.830,-63.365
1565.840,-63.342
1565.850,-63.347
1565.860,-63.338
1565.870,-63.316
1565.880,-63.371
1565.890,-63.637
1565.900,-63.681
1565.910,-63.944
1565.920,-64.106
1565.930,-64.208
1565.940,-64.421
1565.950,-64.602
1565.960,-64.609
1565.970,-65.017
1565.980,-64.822
1565.990,-65.118
1566.000,-65.170
1566.010,-65.311
1566.020,-65.284
1566.030,-65.351
1566.040,-65.359
1566.050,-65.291
1566.060,-65.158
1566.070,-65.191
1566.080,-65.073
1566.090,-64.811
1566.100,-64.640
1566.110,-64.470
1566.120,-64.259
1566.130,-64.217
1566.140,-64.002
1566.150,-63.868
1566.160,-63.548
1566.170,-63.441
1566.180,-63.386
1566.190,-63.186
1566.200,-63.189
1566.210,-63.107
1566.220,-63.119
1566.230,-63.137
1566.240,-63.287
1566.250,-63.425
1566.260,-63.706
1566.270,-63.758
1566.280,-64.016
1566.290,-64.205
1566.300,-64.408
1566.310,-64.611
1566.320,-64.761
1566.330,-64.979
1566.340,-65.245
1566.350,-65.332
1566.360,-65.406
1566.370,-65.388
1566.380,-65.608
1566.390,-65.625
1566.400,-65.583
1566.410,-65.458
1566.420,-65.518
1566.430,-65.250
1566.440,-65.229
1566.450,-65.287
1566.460,-64.876
1566.470,-64.674
1566.480,-64.459
1566.490,-64.327
1566.500,-64.078
1566.510,-64.090
1566.520,-63.664
1566.530,-63.459
1566.540,-63.320
1566.550,-63.234
1566.560,-62.951
1566.570,-63.026
1566.580,-63.019
1566.590,-63.014
1566.600,-63.004
1566.610,-63.276
1566.620,-63.408
1566.630,-63.558
1566.640,-63.782
1566.650,-63.983
1566.660,-64.100
1566.670,-64.420
1566.680,-64.695
1566.690,-64.764
1566.700,-65.031
1566.710,-65.156
1566.720,-65.315
1566.730,-65.499
1566.740,-65.702
1566.750,-65.465
1566.760,-65.572
1566.770,-65.491
1566.780,-65.623
1566.790,-65.452
1566.800,-65.394
1566.810,-65.236
1566.820,-65.021
1566.830,-65.044
1566.840,-64.724
1566.850,-64.659
1566.860,-64.392
1566.870,-64.085
1566.880,-63.823
1566.890,-63.568
1566.900,-63.366
1566.910,-63.334
1566.920,-63.162
1566.930,-63.038
1566.940,-63.005
1566.950,-62.965
1566.960,-63.033
1566.970,-63.110
1566.980,-63.396
1566.990,-63.423
1567.000,-63.594
1567.010,-63.921
1567.020,-64.164
1567.030,-64.344
1567.040,-64.652
1567.050,-64.847
1567.060,-64.967
1567.070,-65.181
1567.080,-65.286
1567.090,-65.576
1567.100,-65.588
1567.110,-65.653
1567.120,-65.635
1567.130,-65.594
1567.140,-65.690
1567.150,-65.549
1567.160,-65.599
1567.170,-65.398
1567.180,-65.254
1567.190,-65.162
1567.200,-65.018
1567.210,-64.801
1567.220,-64.550
1567.230,-64.445
1567.240,-64.180
1567.250,-64.014
1567.260,-63.661
1567.270,-63.524
1567.280,-63.398
1567.290,-63.301
1567.300,-63.272
1567.310,-63.213
1567.320,-63.203
1567.330,-63.260
1567.340,-63.418
1567.350,-63.569
1567.360,-63.621
1567.370,-63.887
1567.380,-64.161
1567.390,-64.272
1567.400,-64.461
1567.410,-64.839
1567.420,-64.921
1567.430,-65.040
1567.440,-65.201
1567.450,-65.274
1567.460,-65.497
1567.470,-65.358
1567.480,-65.633
1567.490,-65.694
1567.500,-65.574
1567.510,-65.598
1567.520,-65.443
1567.530,-65.273
1567.540,-65.251
1567.550,-65.103
1567.560,-64.882
1567.570,-64.735
1567.580,-64.680
1567.590,-64.554
1567.600,-64.307
1567.610,-64.017
1567.620,-63.846
1567.630,-63.726
1567.640,-63.537
1567.650,-63.406
1567.660,-63.368
1567.670,-63.423
1567.680,-63.467
1567.690,-63.571
1567.700,-63.581
1567.710,-63.823
1567.720,-64.034
1567.730,-64.098
1567.740,-64.383
1567.750,-64.513
1567.760,-64.684
1567.770,-64.937
1567.780,-64.967
1567.790,-65.288
1567.800,-65.324
1567.810,-65.517
1567.820,-65.675
1567.830,-65.573
1567.840,-65.679
1567.850,-65.686
1567.860,-65.541
1567.870,-65.721
1567.880,-65.414
1567.890,-65.390
1567.900,-65.440
1567.910,-65.293
1567.920,-65.017
1567.930,-64.726
1567.940,-64.617
1567.950,-64.400
1567.960,-64.075
1567.970,-64.059
1567.980,-63.775
1567.990,-63.725
1568.000,-63.448
1568.010,-63.452
1568.020,-63.400
1568.030,-63.443
1568.040,-63.416
1568.050,-63.512
1568.060,-63.514
1568.070,-63.711
1568.080,-63.903
1568.090,-64.094
1568.100,-64.404
1568.110,-64.563
1568.120,-64.708
1568.130,-64.829
1568.140,-65.073
1568.150,-65.185
1568.160,-65.454
1568.170,-65.450
1568.180,-65.440
1568.190,-65.722
1568.200,-65.717
1568.210,-65.753
1568.220,-65.900
1568.230,-65.688
1568.240,-65.682
1568.250,-65.645
1568.260,-65.394
1568.270,-65.249
1568.280,-65.240
1568.290,-65.080
1568.300,-64.795
1568.310,-64.695
1568.320,-64.428
1568.330,-64.311
1568.340,-63.997
1568.350,-63.824
1568.360,-63.803
1568.370,-63.496
1568.380,-63.435
1568.390,-63.476
1568.400,-63.437
1568.410,-63.489
1568.420,-63.550
1568.430,-63.455
1568.440,-63.631
1568.450,-63.910
1568.460,-64.157
1568.470,-64.189
1568.480,-64.544
1568.490,-64.675
1568.500,-64.744
1568.510,-64.816
1568.520,-65.117
1568.530,-65.307
1568.540,-65.396
1568.550,-65.339
1568.560,-65.640
1568.570,-65.453
1568.580,-65.680
1568.590,-65.816
1568.600,-65.734
1568.610,-65.664
1568.620,-65.462
1568.630,-65.347
1568.640,-65.372
1568.650,-65.259
1568.660,-64.915
1568.670,-64.865
1568.680,-64.654
1568.690,-64.590
1568.700,-64.304
1568.710,-64.027
1568.720,-64.079
1568.730,-63.710
1568.740,-63.714
1568.750,-63.641
1568.760,-63.503
1568.770,-63.401
1568.780,-63.487
1568.790,-63.540
1568.800,-63.540
1568.810,-63.692
1568.820,-63.833
1568.830,-63.996
1568.840,-64.129
1568.850,-64.329
1568.860,-64.396
1568.870,-64.645
1568.880,-64.858
1568.890,-64.933
1568.900,-65.239
1568.910,-65.272
1568.920,-65.277
1568.930,-65.411
1568.940,-65.439
1568.950,-65.654
1568.960,-65.584
1568.970,-65.565
1568.980,-65.548
1568.990,-65.401
1569.000,-65.315
1569.010,-65.305
1569.020,-65.216
1569.030,-64.996
1569.040,-64.917
1569.050,-64.761
1569.060,-64.694
1569.070,-64.557
1569.080,-64.364
1569.090,-64.290
1569.100,-64.055
1569.110,-63.844
1569.120,-63.772
1569.130,-63.689
1569.140,-63.750
1569.150,-63.577
1569.160,-63.662
1569.170,-63.730
1569.180,-63.749
1569.190,-63.801
1569.200,-63.875
1569.210,-64.117
1569.220,-64.215
1569.230,-64.353
1569.240,-64.518
1569.250,-64.526
1569.260,-64.650
1569.270,-65.062
1569.280,-65.044
1569.290,-64.987
1569.300,-65.205
1569.310,-65.178
1569.320,-65.265
1569.330,-65.300
1569.340,-65.355
1569.350,-65.214
1569.360,-65.285
1569.370,-65.270
1569.380,-65.220
1569.390,-65.032
1569.400,-64.995
1569.410,-64.936
1569.420,-64.860
1569.430,-64.735
1569.440,-64.570
1569.450,-64.363
1569.460,-64.424
1569.470,-64.261
1569.480,-64.057
1569.490,-64.046
1569.500,-64.047
1569.510,-63.990
1569.520,-63.931
1569.530,-63.864
1569.540,-63.887
1569.550,-63.934
1569.560,-64.020
1569.570,-64.025
1569.580,-64.040
1569.590,-64.145
1569.600,-64.468
1569.610,-64.504
1569.620,-64.587
1569.630,-64.877
1569.640,-64.760
1569.650,-64.880
1569.660,-65.011
1569.670,-65.189
1569.680,-64.953
1569.690,-65.138
1569.700,-65.225
1569.710,-65.210
1569.720,-65.219
1569.730,-65.153
1569.740,-65.133
1569.750,-65.118
1569.760,-65.089
1569.770,-65.000
1569.780,-65.010
1569.790,-64.644
1569.800,-64.877
1569.810,-64.728
1569.820,-64.520
1569.830,-64.450
1569.840,-64.312
1569.850,-64.326
1569.860,-64.239
1569.870,-64.022
1569.880,-64.060
1569.890,-64.089
1569.900,-64.017
1569.910,-64.052
1569.920,-64.083
1569.930,-64.066
1569.940,-64.250
1569.950,-64.377
1569.960,-64.308
1569.970,-64.465
1569.980,-64.511
1569.990,-64.632
1570.000,-64.887
1570.010,-64.918
1570.020,-65.102
1570.030,-65.284
1570.040,-65.134
1570.050,-65.321
1570.060,-65.405
1570.070,-65.273
1570.080,-65.337
1570.090,-65.375
1570.100,-65.335
1570.110,-65.243
1570.120,-65.118
1570.130,-65.043
1570.140,-65.137
1570.150,-65.144
1570.160,-64.936
1570.170,-64.750
1570.180,-64.753
1570.190,-64.509
1570.200,-64.574
1570.210,-64.392
1570.220,-64.199
1570.230,-64.290
1570.240,-64.252
1570.250,-64.104
1570.260,-63.996
1570.270,-64.099
1570.280,-64.066
1570.290,-64.091
1570.300,-64.163
1570.310,-64.248
1570.320,-64.293
1570.330,-64.476
1570.340,-64.585
1570.350,-64.626
1570.360,-64.749
1570.370,-64.895
1570.380,-65.128
1570.390,-65.169
1570.400,-65.318
1570.410,-65.506
1570.420,-65.459
1570.430,-65.596
1570.440,-65.525
1570.450,-65.644
1570.460,-65.493
1570.470,-65.583
1570.480,-65.517
1570.490,-65.458
1570.500,-65.313
1570.510,-65.380
1570.520,-65.188
1570.530,-64.906
1570.540,-64.866
1570.550,-64.794
1570.560,-64.739
1570.570,-64.309
1570.580,-64.400
1570.590,-64.395
1570.600,-64.023
1570.610,-63.980
1570.620,-63.804
1570.630,-63.890
1570.640,-63.848
1570.650,-63.928
1570.660,-63.847
1570.670,-63.900
1570.680,-64.039
1570.690,-64.190
1570.700,-64.555
1570.710,-64.440
1570.720,-64.789
1570.730,-64.894
1570.740,-65.091
1570.750,-65.178
1570.760,-65.343
1570.770,-65.616
1570.780,-65.728
1570.790,-65.680
1570.800,-65.880
1570.810,-65.867
1570.820,-65.689
1570.830,-65.711
1570.840,-65.682
1570.850,-65.880
1570.860,-65.925
1570.870,-65.672
1570.880,-65.371
1570.890,-65.463
1570.900,-65.151
1570.910,-65.115
1570.920,-64.868
1570.930,-64.651
1570.940,-64.514
1570.950,-64.349
1570.960,-64.166
1570.970,-63.977
1570.980,-63.877
1570.990,-63.671
1571.000,-63.676
1571.010,-63.599
1571.020,-63.616
1571.030,-63.754
1571.040,-63.876
1571.050,-63.844
1571.060,-64.083
1571.070,-64.217
1571.080,-64.454
1571.090,-64.660
1571.100,-64.870
1571.110,-65.015
1571.120,-65.262
1571.130,-65.353
1571.140,-65.583
1571.150,-65.683
1571.160,-65.899
1571.170,-65.931
1571.180,-65.964
1571.190,-65.989
1571.200,-66.157
1571.210,-66.045
1571.220,-66.012
1571.230,-65.738
1571.240,-65.767
1571.250,-65.808
1571.260,-65.674
1571.270,-65.459
1571.280,-65.078
1571.290,-65.075
1571.300,-64.927
1571.310,-64.591
1571.320,-64.300
1571.330,-64.197
1571.340,-64.063
1571.350,-63.921
1571.360,-63.769
1571.370,-63.606
1571.380,-63.658
1571.390,-63.672
1571.400,-63.665
1571.410,-63.707
1571.420,-63.899
1571.430,-63.889
1571.440,-64.119
1571.450,-64.300
1571.460,-64.666
1571.470,-64.861
1571.480,-65.074
1571.490,-65.133
1571.500,-65.349
1571.510,-65.335
1571.520,-65.513
1571.530,-65.901
1571.540,-65.732
1571.550,-65.680
1571.560,-65.729
1571.570,-65.850
1571.580,-65.810
1571.590,-65.840
1571.600,-65.909
1571.610,-65.667
1571.620,-65.745
1571.630,-65.482
1571.640,-65.386
1571.650,-65.313
1571.660,-64.809
1571.670,-64.683
1571.680,-64.581
1571.690,-64.443
1571.700,-64.200
1571.710,-63.995
1571.720,-64.091
1571.730,-63.870
1571.740,-63.654
1571.750,-63.768
1571.760,-63.761
1571.770,-63.857
1571.780,-63.870
1571.790,-64.107
1571.800,-64.130
1571.810,-64.342
1571.820,-64.670
1571.830,-64.649
1571.840,-65.005
1571.850,-65.022
1571.860,-65.400
1571.870,-65.330
1571.880,-65.406
1571.890,-65.617
1571.900,-65.824
1571.910,-65.990
1571.920,-65.650
1571.930,-65.959
1571.940,-65.954
1571.950,-65.775
1571.960,-65.672
1571.970,-65.724
1571.980,-65.418
1571.990,-65.516
1572.000,-65.293
1572.010,-65.288
1572.020,-64.897
1572.030,-64.955
1572.040,-64.724
1572.050,-64.402
1572.060,-64.252
1572.070,-64.141
1572.080,-63.996
1572.090,-63.888
1572.100,-63.815
1572.110,-63.874
1572.120,-63.901
1572.130,-63.905
1572.140,-63.922
1572.150,-64.109
1572.160,-64.244
1572.170,-64.382
1572.180,-64.599
1572.190,-64.783
1572.200,-65.030
1572.210,-65.379
1572.220,-65.258
1572.230,-65.522
1572.240,-65.681
1572.250,-65.643
1572.260,-65.713
1572.270,-65.864
1572.280,-66.006
1572.290,-65.893
1572.300,-65.857
1572.310,-66.018
1572.320,-65.880
1572.330,-65.752
1572.340,-65.650
1572.350,-65.551
1572.360,-65.425
1572.370,-65.117
1572.380,-64.983
1572.390,-64.952
1572.400,-64.524
1572.410,-64.387
1572.420,-64.194
1572.430,-63.933
1572.440,-63.935
1572.450,-63.904
1572.460,-63.736
1572.470,-63.735
1572.480,-63.805
1572.490,-63.872
1572.500,-63.971
1572.510,-64.119
1572.520,-64.135
1572.530,-64.417
1572.540,-64.630
1572.550,-64.845
1572.560,-65.146
1572.570,-65.337
1572.580,-65.434
1572.590,-65.522
1572.600,-65.791
1572.610,-66.168
1572.620,-65.831
1572.630,-66.328
1572.640,-66.212
1572.650,-66.151
1572.660,-66.313
1572.670,-66.028
1572.680,-66.174
1572.690,-65.901
1572.700,-65.773
1572.710,-65.722
1572.720,-65.627
1572.730,-65.419
1572.740,-65.240
1572.750,-65.002
1572.760,-64.752
1572.770,-64.683
1572.780,-64.447
1572.790,-64.090
1572.800,-63.982
1572.810,-63.871
1572.820,-63.651
1572.830,-63.578
1572.840,-63.573
1572.850,-63.711
1572.860,-63.898
1572.870,-63.746
1572.880,-64.045
1572.890,-64.292
1572.900,-64.454
1572.910,-64.650
1572.920,-65.013
1572.930,-65.209
1572.940,-65.540
1572.950,-65.662
1572.960,-65.769
1572.970,-65.958
1572.980,-66.109
1572.990,-66.477
1573.000,-66.332
1573.010,-66.475
1573.020,-66.357
1573.030,-66.394
1573.040,-66.510
1573.050,-66.180
1573.060,-66.414
1573.070,-66.171
1573.080,-65.910
1573.090,-65.733
1573.100,-65.595
1573.110,-65.423
1573.120,-65.181
1573.130,-65.045
1573.140,-64.745
1573.150,-64.425
1573.160,-64.332
1573.170,-64.108
1573.180,-63.975
1573.190,-63.809
1573.200,-63.778
1573.210,-63.701
1573.220,-63.807
1573.230,-63.855
1573.240,-63.966
1573.250,-64.148
1573.260,-64.443
1573.270,-64.613
1573.280,-64.839
1573.290,-65.172
1573.300,-65.250
1573.310,-65.515
1573.320,-65.768
1573.330,-65.936
1573.340,-65.951
1573.350,-66.046
1573.360,-66.194
1573.370,-66.231
1573.380,-66.521
1573.390,-66.550
1573.400,-66.495
1573.410,-66.533
1573.420,-66.412
1573.430,-66.369
1573.440,-66.270
1573.450,-66.236
1573.460,-65.954
1573.470,-65.738
1573.480,-65.556
1573.490,-65.465
1573.500,-65.435
1573.510,-64.907
1573.520,-64.828
1573.530,-64.653
1573.540,-64.453
1573.550,-64.270
1573.560,-64.037
1573.570,-64.032
1573.580,-64.165
1573.590,-64.044
1573.600,-64.047
1573.610,-64.161
1573.620,-64.348
1573.630,-64.550
1573.640,-64.522
1573.650,-64.755
1573.660,-64.959
1573.670,-65.220
1573.680,-65.383
1573.690,-65.513
1573.700,-65.777
1573.710,-65.990
1573.720,-66.040
1573.730,-66.194
